# La4Ni3O10 O K edge XAS
# Room temperature
# Horizontal scattering geometry, theta = 15 degrees, 2theta = 95 degrees
# SEXTANTS beamline, SOLEIL synchrotron
# Energy 	 TEY 	 TFY
5.25156e+02 7.97965e-04 6.46385e-04
5.25349e+02 -3.55400e-04 -1.33754e-04
5.25550e+02 -1.63482e-03 -6.95527e-04
5.25750e+02 2.64667e-04 -5.25072e-04
5.25953e+02 1.27067e-03 1.27545e-03
5.26152e+02 2.76439e-04 -4.12505e-04
5.26354e+02 -5.96915e-04 -6.78246e-04
5.26551e+02 -1.06375e-04 5.25375e-04
5.26745e+02 9.50208e-05 -4.43992e-04
5.26946e+02 -1.12502e-05 4.41886e-04
5.27149e+02 2.16413e-04 7.60870e-04
5.27357e+02 -2.11555e-03 1.04606e-03
5.27551e+02 -2.08582e-03 2.60146e-03
5.27753e+02 -2.14926e-03 3.35224e-03
5.27949e+02 -1.91685e-03 3.47457e-03
5.28151e+02 -8.62442e-03 4.21748e-03
5.28353e+02 -2.07339e-03 5.83409e-03
5.28552e+02 -1.58790e-03 8.13386e-03
5.28749e+02 -8.55391e-04 8.29433e-03
5.28952e+02 -1.97504e-03 1.34597e-02
5.29146e+02 1.73725e-03 1.92380e-02
5.29350e+02 1.84472e-03 2.61228e-02
5.29553e+02 8.84619e-03 4.16577e-02
5.29746e+02 2.03214e-02 7.93163e-02
5.29949e+02 6.38238e-02 1.98411e-01
5.30153e+02 1.68914e-01 5.03718e-01
5.30348e+02 3.26166e-01 8.72869e-01
5.30550e+02 4.31925e-01 1.06214e+00
5.30750e+02 4.07978e-01 9.85764e-01
5.30946e+02 3.25362e-01 8.01012e-01
5.31145e+02 2.60882e-01 6.51635e-01
5.31344e+02 2.26702e-01 5.56252e-01
5.31552e+02 2.14232e-01 4.88752e-01
5.31753e+02 2.10457e-01 4.43628e-01
5.31951e+02 2.03505e-01 4.02566e-01
5.32147e+02 1.99629e-01 3.71675e-01
5.32346e+02 1.96851e-01 3.46468e-01
5.32554e+02 2.12406e-01 3.20528e-01
5.32748e+02 2.21199e-01 3.09262e-01
5.32950e+02 2.45880e-01 3.10736e-01
5.33147e+02 2.74060e-01 3.27676e-01
5.33348e+02 3.08398e-01 3.53597e-01
5.33547e+02 3.53125e-01 4.19502e-01
5.33753e+02 4.30308e-01 5.52984e-01
5.33944e+02 5.20667e-01 7.05447e-01
5.34151e+02 6.07279e-01 8.10829e-01
5.34344e+02 6.76286e-01 8.55751e-01
5.34545e+02 7.32547e-01 8.68573e-01
5.34761e+02 7.94158e-01 8.87977e-01
5.34949e+02 8.65223e-01 9.04702e-01
5.35158e+02 9.59152e-01 9.32140e-01
5.35350e+02 1.06083e+00 9.67085e-01
5.35552e+02 1.15442e+00 1.00495e+00
5.35757e+02 1.20420e+00 1.04911e+00
5.35946e+02 1.22273e+00 1.08989e+00
5.36150e+02 1.22221e+00 1.14368e+00
5.36350e+02 1.23246e+00 1.18948e+00
5.36550e+02 1.26167e+00 1.24658e+00
5.36750e+02 1.30527e+00 1.29628e+00
5.36948e+02 1.35825e+00 1.34614e+00
5.37152e+02 1.40622e+00 1.37642e+00
5.37352e+02 1.44338e+00 1.38874e+00
5.37537e+02 1.46928e+00 1.38929e+00
5.37753e+02 1.50031e+00 1.39637e+00
5.37957e+02 1.52891e+00 1.41584e+00
5.38157e+02 1.53611e+00 1.41567e+00
5.38348e+02 1.51489e+00 1.38298e+00
5.38545e+02 1.46255e+00 1.31896e+00
5.38743e+02 1.38445e+00 1.22688e+00
5.38945e+02 1.29448e+00 1.10911e+00
5.39154e+02 1.20074e+00 9.94148e-01
5.39349e+02 1.12028e+00 8.86888e-01
5.39544e+02 1.05154e+00 7.99472e-01
5.39751e+02 9.92538e-01 7.27364e-01
5.39943e+02 9.56419e-01 6.77988e-01
5.40154e+02 9.22623e-01 6.52631e-01
5.40340e+02 9.00041e-01 6.42779e-01
5.40554e+02 8.87572e-01 6.52668e-01
5.40745e+02 8.85232e-01 6.67332e-01
5.40950e+02 8.90076e-01 6.84356e-01
5.41145e+02 9.01112e-01 7.12641e-01
5.41348e+02 9.19350e-01 7.43815e-01
5.41550e+02 9.40945e-01 7.76949e-01
5.41745e+02 9.68316e-01 8.10199e-01
5.41950e+02 9.97026e-01 8.53385e-01
5.42149e+02 1.02773e+00 9.05837e-01
5.42350e+02 1.06118e+00 9.57949e-01
5.42552e+02 1.08992e+00 1.01547e+00
5.42743e+02 1.11075e+00 1.05261e+00
5.42942e+02 1.12400e+00 1.08022e+00
5.43142e+02 1.12680e+00 1.08546e+00
5.43352e+02 1.12397e+00 1.08389e+00
5.43548e+02 1.11620e+00 1.08233e+00
5.43745e+02 1.10897e+00 1.07050e+00
5.43945e+02 1.10244e+00 1.07002e+00
5.44145e+02 1.10097e+00 1.07496e+00
5.44342e+02 1.10440e+00 1.08751e+00
5.44548e+02 1.10846e+00 1.10198e+00
5.44743e+02 1.11725e+00 1.12025e+00
5.44944e+02 1.12749e+00 1.14519e+00
5.45152e+02 1.13774e+00 1.15820e+00
5.45346e+02 1.14699e+00 1.17451e+00
5.45547e+02 1.15869e+00 1.19603e+00
5.45750e+02 1.16283e+00 1.20812e+00
5.45943e+02 1.17159e+00 1.21554e+00
5.46148e+02 1.17357e+00 1.21913e+00
5.46345e+02 1.17097e+00 1.22021e+00
5.46547e+02 1.16715e+00 1.21521e+00
5.46749e+02 1.15831e+00 1.20276e+00
5.46944e+02 1.14515e+00 1.19009e+00
5.47147e+02 1.12942e+00 1.17213e+00
5.47350e+02 1.11891e+00 1.15919e+00
5.47543e+02 1.10026e+00 1.13581e+00
5.47748e+02 1.06844e+00 1.10318e+00
5.47951e+02 1.04728e+00 1.08188e+00
5.48149e+02 1.01827e+00 1.05455e+00
5.48356e+02 9.93034e-01 1.02334e+00
5.48545e+02 9.68320e-01 9.96169e-01
5.48749e+02 9.45671e-01 9.69904e-01
5.48951e+02 9.24022e-01 9.51585e-01
5.49146e+02 9.06211e-01 9.27539e-01
5.49341e+02 8.86270e-01 9.11930e-01
5.49549e+02 8.70919e-01 8.95849e-01
5.49755e+02 8.54689e-01 8.87470e-01
5.49938e+02 8.41086e-01 8.79640e-01
5.50147e+02 8.29904e-01 8.68285e-01
5.50337e+02 8.18636e-01 8.63838e-01
5.50544e+02 8.13147e-01 8.59974e-01
5.50747e+02 8.11726e-01 8.61567e-01
5.50944e+02 8.06066e-01 8.64530e-01
5.51142e+02 8.07689e-01 8.71411e-01
5.51349e+02 8.06993e-01 8.74113e-01
5.51548e+02 8.08528e-01 8.78373e-01
5.51743e+02 8.09332e-01 8.87261e-01
5.51951e+02 8.12596e-01 8.89235e-01
5.52141e+02 8.18864e-01 8.97699e-01
5.52351e+02 8.20976e-01 9.09265e-01
5.52548e+02 8.25634e-01 9.13825e-01
5.52748e+02 8.30373e-01 9.23319e-01
5.52947e+02 8.37490e-01 9.33844e-01
5.53142e+02 8.50720e-01 9.44118e-01
5.53343e+02 8.50404e-01 9.49573e-01
5.53545e+02 8.53759e-01 9.59742e-01
5.53749e+02 8.57383e-01 9.59683e-01
5.53946e+02 8.63135e-01 9.67924e-01
5.54146e+02 8.63230e-01 9.64826e-01
5.54338e+02 8.80729e-01 9.68974e-01
5.54546e+02 8.79546e-01 9.69983e-01
5.54743e+02 8.84916e-01 9.63422e-01
5.54949e+02 8.83605e-01 9.59008e-01
5.55136e+02 8.85571e-01 9.61519e-01
5.55354e+02 8.85486e-01 9.53777e-01
5.55546e+02 8.87657e-01 9.49444e-01
5.55744e+02 8.85380e-01 9.50493e-01
5.55951e+02 8.80095e-01 9.48073e-01
5.56149e+02 8.88354e-01 9.46054e-01
5.56341e+02 8.90707e-01 9.44324e-01
5.56543e+02 8.92201e-01 9.42068e-01
5.56754e+02 8.96236e-01 9.45719e-01
5.56944e+02 8.96351e-01 9.37974e-01
5.57147e+02 9.00114e-01 9.44490e-01
5.57344e+02 9.01477e-01 9.40147e-01
5.57545e+02 9.05341e-01 9.46087e-01
5.57750e+02 9.08410e-01 9.48776e-01
5.57940e+02 9.11794e-01 9.50996e-01
5.58140e+02 9.24503e-01 9.53253e-01
5.58351e+02 9.21846e-01 9.56673e-01
5.58545e+02 9.26226e-01 9.66050e-01
5.58940e+02 9.30659e-01 9.71926e-01
5.59144e+02 9.33883e-01 9.79954e-01
5.59348e+02 9.39172e-01 9.86408e-01
5.59547e+02 9.45233e-01 9.91529e-01
5.59744e+02 9.47682e-01 9.93957e-01
5.59955e+02 9.50856e-01 1.00238e+00
